time (unix)	dt (s)	p (Pa)
1616490446.514	0.173	2737.150
1616490460.107	0.650	2712.591
1616490497.426	1.607	2684.518
1616490527.429	1.610	2684.717
1616490557.432	1.614	2678.005
1616490587.426	1.607	2672.288
1616490617.430	1.611	2667.543
1616490647.426	1.608	2665.667
1616490677.431	1.611	2698.113
1616490707.429	1.609	2915.768
1616490737.427	1.608	2951.705
1616490767.429	1.610	2961.002
1616490797.432	1.611	2964.503
1616490827.431	1.612	2965.130
1616490857.430	1.612	2964.777
1616490887.429	1.608	2963.043
1616490917.429	1.611	2960.390
1616490947.434	1.613	2957.848
1616490977.437	1.613	2954.305
1616491007.434	1.611	2951.185
1616491037.429	1.607	2947.727
1616491067.437	1.613	2944.095
1616491097.432	1.613	2940.312
1616491127.432	1.611	2935.520
1616491157.428	1.607	2930.915
1616491187.430	1.610	2927.620
1616491217.428	1.607	2922.723
1616491247.431	1.610	2917.997
1616491277.431	1.611	2912.668
1616491307.431	1.610	2908.350
1616491337.429	1.612	2903.828
1616491367.880	1.611	2899.908
1616491397.350	1.607	2895.840
1616491427.349	1.607	2890.303
1616491457.352	1.607	2885.558
1616491487.355	1.614	2880.370
1616491517.356	1.614	2874.615
1616491547.354	1.614	2868.877
1616491577.351	1.610	2862.348
1616491607.349	1.606	2857.030
1616491637.349	1.606	2852.110
1616491667.349	1.607	2846.263
1616491697.345	1.606	2840.333
1616491727.349	1.607	2834.925
1616491757.347	1.606	2829.478
1616491787.348	1.606	2824.072
1616491817.354	1.611	2817.722
1616491847.353	1.613	2812.083
1616491877.355	1.614	2805.880
1616491907.352	1.612	2800.378
1616491937.350	1.609	2794.833
1616491967.354	1.609	2788.208
1616491997.353	1.610	2781.953
1616492027.346	1.606	2775.632
1616492057.349	1.606	2770.170
1616492087.354	1.609	2763.935
1616492117.353	1.610	2758.105
1616492147.354	1.614	2752.582
1616492177.355	1.614	2746.222
1616492207.349	1.609	2739.900
1616492237.347	1.606	2733.033
1616492267.349	1.606	2726.773
1616492297.353	1.610	2720.658
1616492327.349	1.607	2714.140
1616492357.351	1.607	2707.850
1616492387.351	1.609	2701.797
1616492417.357	1.609	2695.795
1616492447.348	1.606	2689.185
1616492477.347	1.606	2682.760
1616492507.353	1.609	2677.330
1616492537.348	1.606	2670.812
1616492567.352	1.611	2664.647
1616492597.352	1.610	2658.197
1616492627.353	1.613	2651.357
1616492657.351	1.611	2645.637
1616492687.349	1.609	2639.705
1616492717.347	1.606	2633.303
1616492747.350	1.609	2626.988
1616492777.351	1.607	2619.770
1616492807.349	1.606	2613.855
1616492837.346	1.606	2607.222
1616492867.355	1.609	2600.832
1616492897.347	1.607	2594.893
1616492927.353	1.610	2588.468
1616492957.353	1.613	2581.810
1616492987.356	1.613	2575.007
1616493017.351	1.610	2568.792
1616493047.353	1.610	2562.500
1616493077.350	1.611	2555.797
1616493107.356	1.614	2550.813
1616493137.351	1.609	2544.850
1616493167.351	1.610	2538.177
1616493197.349	1.607	2531.530
1616493227.347	1.607	2524.557
1616493257.347	1.606	2517.820
1616493287.351	1.609	2511.333
1616493317.349	1.609	2505.170
1616493347.353	1.613	2499.580
1616493377.350	1.610	2493.260
1616493407.349	1.607	2486.237
1616493437.352	1.612	2479.393
1616493467.354	1.611	2472.535
1616493497.352	1.611	2466.430
1616493527.347	1.606	2460.440
1616493557.349	1.607	2454.115
1616493587.348	1.609	2447.730
1616493617.353	1.613	2441.103
1616493647.348	1.606	2434.212
1616493677.347	1.606	2427.967
1616493707.351	1.610	2421.510
1616493737.352	1.612	2415.470
1616493767.350	1.607	2409.528
1616493797.351	1.611	2403.292
1616493827.353	1.614	2396.822
1616493857.352	1.610	2389.840
1616493887.349	1.606	2383.297
1616493917.350	1.607	2376.490
1616493947.354	1.611	2370.267
1616493977.354	1.614	2364.508
1616494007.349	1.607	2358.277
1616494037.354	1.611	2351.463
1616494067.351	1.610	2345.158
1616494097.347	1.607	2338.230
1616494127.355	1.614	2331.697
1616494157.349	1.607	2325.247
1616494187.354	1.611	2319.703
1616494217.351	1.613	2313.415
1616494247.351	1.609	2306.315
1616494277.354	1.614	2299.992
1616494307.351	1.609	2293.017
1616494337.347	1.607	2286.667
1616494367.353	1.611	2280.280
1616494397.350	1.611	2274.063
1616494427.348	1.607	2267.895
1616494457.347	1.607	2261.552
1616494487.353	1.613	2255.137
1616494517.352	1.610	2248.485
1616494547.349	1.609	2241.375
1616494577.350	1.609	2234.857
1616494607.351	1.612	2229.042
1616494637.353	1.609	2222.872
1616494667.350	1.609	2216.460
1616494697.352	1.613	2209.723
1616494727.348	1.609	2203.357
1616494757.350	1.612	2196.658
1616494787.352	1.612	2190.045
1616494817.349	1.607	2183.677
1616494847.349	1.609	2177.640
1616494877.353	1.614	2171.365
1616494907.350	1.609	2164.555
1616494937.347	1.607	2157.895
1616494967.352	1.611	2151.772
1616494997.355	1.614	2144.837
1616495027.346	1.608	2138.328
1616495057.347	1.606	2132.437
1616495087.350	1.607	2126.782
1616495117.354	1.613	2119.897
1616495147.354	1.613	2113.108
1616495177.349	1.609	2106.365
1616495207.354	1.613	2099.527
1616495237.351	1.610	2093.127
1616495267.347	1.608	2086.513
1616495297.354	1.611	2080.675
1616495327.353	1.613	2074.175
1616495357.353	1.610	2067.330
1616495387.348	1.607	2061.423
1616495417.352	1.609	2054.502
1616495447.352	1.610	2047.978
1616495477.355	1.614	2041.703
1616495507.353	1.613	2035.578
1616495537.352	1.610	2029.320
1616495567.347	1.606	2022.518
1616495597.351	1.610	2015.852
1616495627.352	1.613	2009.672
1616495657.349	1.606	2002.977
1616495687.355	1.611	1996.595
1616495717.353	1.611	1989.992
1616495747.354	1.611	1983.410
1616495777.354	1.611	1977.025
1616495807.349	1.609	1970.568
1616495837.355	1.614	1964.582
1616495867.355	1.609	1957.393
1616495897.356	1.613	1950.737
1616495927.351	1.611	1944.623
1616495957.353	1.609	1938.632
1616495987.353	1.613	1932.150
1616496017.349	1.607	1925.808
1616496047.349	1.609	1918.847
1616496077.352	1.610	1912.912
1616496107.356	1.614	1906.412
1616496137.348	1.610	1899.493
1616496167.352	1.611	1892.883
1616496197.358	1.613	1886.328
1616496227.349	1.607	1880.195
1616496257.353	1.613	1873.322
1616496287.352	1.613	1866.680
1616496317.348	1.608	1860.342
1616496347.357	1.613	1853.778
1616496377.349	1.609	1847.170
1616496407.355	1.610	1840.728
1616496437.354	1.613	1834.148
1616496467.353	1.610	1828.352
1616496497.346	1.606	1821.518
1616496527.352	1.610	1814.390
1616496557.354	1.610	1807.975
1616496587.357	1.613	1801.705
1616496617.349	1.609	1795.028
1616496647.352	1.612	1788.495
1616496677.353	1.611	1781.973
1616496707.349	1.610	1776.198
1616496737.353	1.610	1769.752
1616496767.354	1.610	1762.342
1616496797.347	1.607	1755.705
1616496827.356	1.612	1749.263
1616496857.354	1.609	1742.937
1616496887.354	1.614	1736.742
1616496917.351	1.610	1730.497
1616496947.351	1.609	1724.403
1616496977.355	1.614	1717.723
1616497007.355	1.611	1710.270
1616497037.353	1.612	1703.382
1616497067.349	1.610	1697.200
1616497097.350	1.609	1690.562
1616497127.352	1.611	1684.358
1616497157.351	1.610	1678.305
1616497187.352	1.610	1671.505
1616497217.351	1.609	1665.382
1616497247.350	1.612	1658.738
1616497277.358	1.614	1651.895
1616497307.351	1.611	1645.488
1616497337.354	1.611	1638.745
1616497367.348	1.609	1632.865
1616497397.352	1.610	1626.225
1616497427.353	1.610	1619.655
1616497457.352	1.611	1612.990
1616497487.350	1.609	1606.343
1616497517.355	1.614	1599.600
1616497547.352	1.610	1593.143
1616497577.351	1.610	1586.902
1616497607.352	1.613	1580.903
1616497637.352	1.610	1574.377
1616497667.357	1.614	1567.673
1616497697.353	1.610	1561.147
1616497727.355	1.614	1554.165
1616497757.352	1.611	1547.488
1616497787.351	1.610	1540.892
1616497817.351	1.611	1534.760
1616497847.350	1.610	1529.027
1616497877.352	1.610	1521.938
1616497907.351	1.610	1514.945
1616497937.352	1.610	1508.480
1616497967.356	1.610	1502.073
1616497997.352	1.611	1495.647
1616498027.355	1.612	1488.665
1616498057.351	1.610	1482.028
1616498087.353	1.612	1475.933
1616498117.355	1.610	1469.552
1616498147.352	1.610	1462.690
1616498177.352	1.610	1456.327
1616498207.350	1.609	1449.792
1616498237.352	1.610	1443.148
1616498267.351	1.610	1436.308
1616498297.353	1.613	1429.837
1616498327.353	1.611	1424.300
1616498357.354	1.613	1417.910
1616498387.349	1.607	1411.113
1616498417.355	1.611	1404.100
1616498447.351	1.609	1396.970
1616498477.355	1.614	1390.663
1616498507.351	1.609	1384.258
1616498537.351	1.609	1377.888
1616498567.353	1.612	1372.120
1616498597.354	1.613	1365.113
1616498627.350	1.610	1358.557
1616498657.354	1.613	1351.748
1616498687.353	1.610	1344.982
1616498717.349	1.607	1338.630
1616498747.353	1.613	1332.110
1616498777.348	1.607	1325.778
1616498807.356	1.613	1319.743
1616498837.350	1.610	1313.270
1616498867.356	1.610	1306.810
1616498897.349	1.609	1300.350
1616498927.352	1.613	1293.802
1616498957.355	1.611	1287.102
1616498987.349	1.610	1280.437
1616499017.351	1.612	1273.445
1616499047.353	1.611	1266.835
1616499077.357	1.614	1260.803
1616499107.355	1.614	1254.413
1616499137.350	1.610	1248.065
1616499167.352	1.611	1241.222
1616499197.351	1.607	1234.683
1616499227.351	1.611	1228.093
1616499257.354	1.610	1221.583
1616499287.350	1.610	1215.113
1616499317.355	1.614	1208.458
1616499347.352	1.610	1202.018
1616499377.349	1.610	1195.633
1616499407.351	1.609	1188.805
1616499437.350	1.609	1182.057
1616499467.352	1.611	1175.755
1616499497.353	1.612	1169.328
1616499527.351	1.610	1162.917
1616499557.355	1.613	1156.257
1616499587.351	1.612	1149.763
1616499617.355	1.611	1143.327
1616499647.353	1.613	1136.750
1616499677.354	1.611	1130.247
1616499707.349	1.609	1123.772
1616499737.354	1.610	1117.125
1616499767.351	1.609	1110.715
1616499797.353	1.612	1103.553
1616499827.351	1.613	1097.508
1616499857.349	1.609	1090.895
1616499887.353	1.613	1084.142
1616499917.349	1.609	1077.495
1616499947.368	1.609	1070.845
1616499977.353	1.613	1064.553
1616500007.355	1.610	1057.673
1616500037.349	1.609	1050.743
1616500067.347	1.606	1044.118
1616500097.352	1.609	1037.840
1616500127.352	1.610	1031.370
1616500157.349	1.607	1024.907
1616500187.357	1.611	1018.168
1616500217.354	1.614	1011.572
1616500247.354	1.612	1005.587
1616500277.354	1.612	998.680
1616500307.350	1.609	991.832
1616500337.355	1.611	985.137
1616500367.353	1.610	978.145
1616500397.348	1.607	972.307
1616500427.353	1.611	966.085
1616500457.349	1.607	959.542
1616500487.354	1.613	952.847
1616500517.351	1.609	946.667
1616500547.351	1.612	940.600
1616500577.347	1.606	935.140
1616500607.350	1.610	929.640
1616500637.354	1.611	924.500
1616500667.356	1.612	919.123
1616500697.349	1.607	914.502
1616500727.349	1.609	909.402
1616500757.350	1.610	904.273
1616500787.350	1.610	899.490
1616500817.350	1.611	894.853
1616500847.350	1.610	891.330
1616500877.352	1.610	887.563
1616500907.354	1.613	883.952
1616500937.353	1.610	880.347
1616500967.351	1.609	876.663
1616500997.352	1.611	873.462
1616501027.355	1.612	870.548
1616501057.351	1.610	867.898
1616501087.354	1.612	864.807
1616501117.352	1.610	862.457
1616501147.353	1.610	859.760
1616501177.354	1.611	857.430
1616501207.349	1.609	854.907
1616501237.352	1.610	852.882
1616501267.351	1.609	851.142
1616501297.352	1.610	848.860
1616501327.354	1.610	846.985
1616501357.351	1.613	845.202
1616501387.352	1.609	843.557
1616501417.351	1.609	841.643
1616501447.355	1.613	840.177
1616501477.348	1.609	838.388
1616501507.350	1.611	837.072
1616501537.351	1.610	835.540
1616501567.353	1.612	834.177
1616501597.355	1.613	832.758
1616501627.352	1.612	831.608
1616501657.348	1.609	830.403
1616501687.354	1.614	829.228
1616501717.352	1.610	828.188
1616501747.350	1.610	827.317
1616501777.352	1.610	826.360
1616501807.352	1.612	825.387
1616501837.352	1.610	824.602
1616501867.352	1.610	823.953
1616501897.349	1.609	823.107
1616501927.351	1.610	822.315
1616501957.351	1.610	821.548
1616501987.353	1.611	820.973
1616502017.352	1.610	820.537
1616502047.350	1.610	820.040
1616502077.348	1.610	819.250
1616502107.353	1.614	818.870
1616502137.352	1.608	818.223
1616502167.353	1.610	817.747
1616502197.353	1.610	817.132
1616502227.351	1.610	816.780
1616502257.351	1.613	816.490
1616502287.346	1.606	816.105
1616502317.356	1.611	815.842
1616502347.356	1.612	815.687
1616502377.351	1.609	815.047
1616502407.352	1.613	814.632
1616502437.353	1.609	814.280
1616502467.348	1.607	813.962
1616502497.351	1.610	813.647
1616502527.353	1.612	813.413
1616502557.349	1.610	813.072
1616502587.353	1.613	812.572
1616502617.354	1.609	812.262
1616502647.352	1.610	812.013
1616502677.352	1.612	811.838
1616502707.349	1.610	811.627
1616502737.348	1.607	811.595
1616502767.350	1.612	811.397
1616502797.355	1.612	811.230
1616502827.355	1.610	811.128
1616502857.350	1.609	811.002
1616502887.349	1.609	810.942
1616502917.357	1.613	810.808
1616502947.355	1.610	810.787
1616502977.351	1.609	810.752
1616503007.352	1.610	810.640
1616503037.352	1.612	810.472
1616503067.351	1.610	810.433
1616503097.353	1.613	810.387
1616503127.351	1.609	810.203
1616503157.352	1.611	810.085
1616503187.351	1.610	810.013
1616503217.357	1.613	809.888
1616503247.350	1.610	809.692
1616503277.355	1.613	809.643
1616503307.351	1.606	809.555
1616503337.350	1.611	809.592
1616503367.351	1.610	809.488
1616503397.350	1.610	809.378
1616503427.356	1.614	809.337
1616503457.353	1.611	809.317
1616503487.348	1.607	809.338
1616503517.352	1.611	809.337
1616503547.349	1.607	809.187
1616503577.352	1.610	809.092
1616503607.355	1.610	808.912
1616503637.350	1.609	809.000
1616503667.349	1.610	808.967
1616503697.351	1.609	808.915
1616503727.354	1.613	808.818
1616503757.351	1.613	808.818
1616503787.351	1.609	808.790
1616503817.350	1.610	808.792
1616503847.351	1.609	808.775
1616503877.351	1.610	808.760
1616503907.351	1.610	808.807
1616503937.347	1.609	808.788
1616503967.354	1.609	808.807
1616503997.355	1.613	808.798
1616504027.348	1.610	808.767
1616504057.354	1.611	808.818
1616504087.352	1.610	808.805
1616504117.352	1.612	808.905
1616504147.353	1.610	809.303
1616504177.353	1.610	809.788
1616504207.355	1.613	810.538
1616504237.351	1.610	811.125
1616504267.351	1.610	812.105
1616504297.353	1.610	813.405
1616504327.349	1.609	815.097
1616504357.353	1.613	816.798
1616504387.354	1.610	818.643
1616504417.347	1.609	820.537
1616504447.350	1.612	822.578
1616504477.349	1.612	824.893
1616504507.350	1.611	827.588
1616504537.355	1.611	830.195
1616504567.352	1.610	833.185
1616504597.351	1.613	836.472
1616504627.350	1.611	839.697
1616504657.349	1.610	843.233
1616504687.353	1.612	846.633
1616504717.351	1.610	850.187
1616504747.354	1.613	853.498
1616504777.351	1.610	857.125
1616504807.351	1.610	861.157
1616504837.348	1.610	865.112
1616504867.349	1.610	869.377
1616504897.355	1.611	873.402
1616504927.353	1.612	877.750
1616504957.353	1.611	882.528
1616504987.352	1.610	887.052
1616505017.351	1.609	891.885
1616505047.352	1.611	896.223
1616505077.351	1.610	901.512
1616505107.351	1.610	906.817
1616505137.349	1.609	912.315
1616505167.354	1.613	917.080
1616505197.353	1.612	922.240
1616505227.350	1.609	927.197
1616505257.355	1.611	932.723
1616505287.350	1.610	937.550
1616505317.351	1.609	942.813
1616505347.351	1.609	948.310
1616505377.351	1.610	953.963
1616505407.349	1.607	959.570
1616505437.350	1.610	965.415
1616505467.349	1.609	970.427
1616505497.354	1.612	975.570
1616505527.351	1.610	981.003
1616505557.353	1.612	986.890
1616505587.349	1.609	992.580
1616505617.352	1.613	998.482
1616505647.348	1.606	1004.635
1616505677.350	1.610	1010.183
1616505707.347	1.607	1015.998
1616505737.351	1.611	1021.922
1616505767.351	1.610	1027.838
1616505797.352	1.610	1033.575
1616505827.355	1.611	1039.387
1616505857.356	1.610	1045.157
1616505887.350	1.610	1050.912
1616505917.355	1.612	1057.068
1616505947.345	1.606	1063.028
1616505977.349	1.609	1069.223
1616506007.352	1.611	1075.258
1616506037.350	1.609	1081.473
1616506067.352	1.610	1087.758
1616506097.352	1.613	1093.898
1616506127.350	1.609	1100.042
1616506157.352	1.610	1105.932
1616506187.354	1.611	1112.265
1616506217.354	1.611	1118.130
1616506247.355	1.613	1124.165
1616506277.350	1.609	1130.222
1616506307.351	1.609	1136.472
1616506337.353	1.613	1142.957
1616506367.349	1.610	1149.063
1616506397.348	1.606	1154.895
1616506427.351	1.609	1161.130
1616506457.347	1.607	1167.252
1616506487.354	1.611	1173.852
1616506517.351	1.610	1179.705
1616506547.350	1.610	1185.982
1616506577.354	1.611	1192.478
1616506607.354	1.610	1198.762
1616506637.351	1.610	1205.330
1616506667.351	1.611	1211.612
1616506697.352	1.609	1217.722
1616506727.351	1.610	1224.172
1616506757.354	1.611	1230.258
1616506787.352	1.610	1236.653
1616506817.354	1.613	1242.762
1616506847.353	1.607	1249.220
1616506877.352	1.610	1255.578
1616506907.352	1.612	1261.985
1616506937.352	1.610	1268.417
1616506967.352	1.612	1274.930
1616506997.356	1.613	1281.275
1616507027.353	1.610	1287.648
1616507057.354	1.610	1294.045
1616507087.353	1.612	1300.547
1616507117.353	1.610	1306.987
1616507147.354	1.613	1313.525
1616507177.353	1.609	1320.090
1616507207.357	1.612	1326.103
1616507237.348	1.607	1332.387
1616507267.352	1.611	1338.917
1616507297.354	1.611	1345.263
1616507327.351	1.610	1351.890
1616507357.350	1.609	1358.245
1616507387.351	1.609	1364.548
1616507417.351	1.610	1371.305
1616507447.348	1.607	1377.483
1616507477.353	1.610	1384.053
1616507507.349	1.609	1390.383
1616507537.354	1.613	1396.752
1616507567.349	1.607	1403.397
1616507597.351	1.612	1409.873
1616507627.350	1.609	1416.450
1616507657.352	1.612	1423.112
1616507687.357	1.613	1429.373
1616507717.352	1.610	1435.680
1616507747.350	1.612	1442.220
1616507777.350	1.610	1448.595
1616507807.350	1.610	1454.952
1616507837.355	1.612	1461.158
1616507867.351	1.610	1467.958
1616507897.350	1.610	1474.157
1616507927.348	1.607	1480.510
1616507957.355	1.613	1487.095
1616507987.355	1.613	1493.802
1616508017.352	1.611	1500.337
1616508047.351	1.610	1506.865
1616508077.354	1.612	1513.078
1616508107.349	1.609	1519.620
1616508137.351	1.610	1525.938
1616508167.352	1.612	1532.605
1616508197.350	1.607	1539.022
1616508227.356	1.614	1545.598
1616508257.351	1.610	1552.287
1616508287.354	1.612	1558.627
1616508317.347	1.609	1564.995
1616508347.352	1.610	1571.680
1616508377.350	1.610	1578.183
1616508407.359	1.613	1584.563
1616508437.355	1.611	1591.127
1616508467.351	1.613	1597.328
1616508497.350	1.609	1603.803
1616508527.352	1.611	1610.433
1616508557.347	1.609	1616.905
1616508587.351	1.611	1623.442
1616508617.352	1.610	1629.850
1616508647.355	1.613	1636.350
1616508677.352	1.612	1642.928
1616508707.354	1.614	1649.383
1616508737.346	1.607	1656.137
1616508767.355	1.613	1662.790
1616508797.349	1.608	1668.957
1616508827.346	1.608	1675.665
1616508857.351	1.610	1682.280
1616508887.355	1.613	1688.608
1616508917.353	1.611	1695.155
1616508947.354	1.613	1701.478
1616508977.347	1.609	1708.110
1616509007.355	1.611	1714.875
1616509037.350	1.606	1721.480
1616509067.352	1.613	1728.077
1616509097.350	1.610	1734.475
1616509127.353	1.612	1740.953
1616509157.352	1.611	1747.247
1616509187.349	1.609	1753.732
1616509217.353	1.613	1760.113
1616509247.350	1.610	1766.568
1616509277.352	1.610	1773.355
1616509307.349	1.610	1779.895
1616509337.351	1.609	1786.410
1616509367.349	1.609	1792.672
1616509397.354	1.613	1799.080
1616509427.347	1.607	1805.773
1616509457.354	1.613	1812.285
1616509487.352	1.610	1818.750
1616509517.349	1.609	1825.458
1616509547.354	1.612	1831.892
1616509577.354	1.610	1838.355
1616509607.352	1.611	1844.798
1616509637.349	1.609	1851.375
1616509667.352	1.611	1857.857
1616509697.354	1.612	1864.542
1616509727.352	1.610	1870.868
1616509757.352	1.612	1877.402
1616509787.350	1.609	1884.088
1616509817.348	1.609	1890.508
1616509847.350	1.609	1897.058
1616509877.353	1.612	1903.678
1616509907.357	1.614	1909.775
1616509937.346	1.608	1916.350
1616509967.354	1.610	1922.843
1616509997.355	1.613	1929.342
1616510027.353	1.610	1936.377
1616510057.350	1.609	1942.592
1616510087.352	1.611	1948.695
1616510117.348	1.607	1955.298
1616510147.354	1.613	1962.205
1616510177.355	1.614	1968.758
1616510207.352	1.613	1974.715
1616510237.347	1.606	1981.422
1616510267.354	1.611	1988.130
1616510297.347	1.609	1994.627
1616510327.355	1.611	2001.350
1616510357.349	1.609	2007.838
1616510387.351	1.611	2014.030
1616510417.352	1.610	2020.760
1616510447.354	1.613	2027.102
1616510477.354	1.610	2033.317
1616510507.355	1.614	2039.905
1616510537.349	1.609	2046.480
